Jaz Data File
++++++++++++++++++++++++++++++++++++
Date: Wed Sep 18 04:13:01 2024
User: jaz
Dark Spectrum Present: Yes
Reference Spectrum Present: Yes
Processed Spectrum Present: Yes
Spectrometers: JAZA3692
Integration Time (usec): 40000 (JAZA3692)
Spectra Averaged: 1 (JAZA3692)
Boxcar Smoothing: 0 (JAZA3692)
Correct for Electrical Dark: No (JAZA3692)
Strobe/Lamp Enabled: Yes (JAZA3692)
Correct for Detector Non-linearity: No (JAZA3692)
Correct for Stray Light: No (JAZA3692)
Number of Pixels in Processed Spectrum: 2048
>>>>>Begin Processed Spectral Data<<<<<
W	D	R	S	P
190.244385	0.000000	0.000000	0.000000	0.000000
190.627136	0.000000	0.000000	0.000000	0.000000
191.009842	1479.088501	1465.435425	1431.302612	350.000885
191.392532	1406.271851	1449.506714	1383.516602	-52.631714
191.775177	1426.751587	1447.231201	1431.302612	22.222221
192.157791	1497.292725	1479.088501	1431.302612	362.498901
192.540390	1483.639526	1440.404663	1440.404663	100.000000
192.922943	1472.261963	1406.271851	1374.414551	148.275864
193.305481	1524.598877	1479.088501	1526.874512	-5.000255
193.687958	1545.078613	1533.701050	1447.231201	860.003235
194.070419	1506.394775	1488.190552	1567.833862	-337.499084
194.452866	1517.772339	1551.905151	1499.568237	-53.333141
194.835251	1490.466064	1463.159912	1485.915039	16.666666
195.217621	1447.231201	1433.578125	1504.119263	-416.668457
195.599960	1504.119263	1488.190552	1495.017212	57.142418
195.982254	1565.558350	1554.180664	1435.853638	1139.992065
196.364517	1485.915039	1570.109375	1501.843750	18.918982
196.746750	1515.496826	1495.017212	1529.150024	-66.667259
197.128952	1481.364014	1558.731689	1506.394775	32.352997
197.511139	1515.496826	1545.078613	1517.772339	7.692276
197.893280	1506.394775	1485.915039	1549.629639	-211.110443
198.275391	1506.394775	1490.466064	1451.782227	342.856049
198.657471	1451.782227	1517.772339	1419.924927	-48.275867
199.039520	1472.261963	1460.884399	1469.986450	20.000000
199.421539	1426.751587	1520.047852	1524.598877	104.878036
199.803513	1524.598877	1506.394775	1483.639526	225.000671
200.185471	1510.945801	1517.772339	1524.598877	200.000000
200.567383	1492.741699	1492.741699	1515.496826	0.000000
200.949265	1472.261963	1506.394775	1495.017212	66.666786
201.331131	1449.506714	1513.221313	1520.047852	110.714241
201.712967	1408.547363	1551.905151	1499.568237	63.492104
202.094742	1474.537476	1510.945801	1490.466064	43.749855
202.476517	1526.874512	1460.884399	1504.119263	34.482815
202.858231	1426.751587	1504.119263	1531.425537	135.294159
203.239944	1440.404663	1458.608887	1465.435425	137.499756
203.621582	1488.190552	1529.150024	1476.812988	-27.777613
204.003235	1510.945801	1495.017212	1454.057739	357.144379
204.384827	1492.741699	1542.803101	1463.159912	-59.091007
204.766388	1549.629639	1481.364014	1601.966675	-76.666748
205.147934	1465.435425	1586.037964	1456.333252	-7.547248
205.529449	1520.047852	1547.354126	1497.292725	-83.332962
205.910904	1533.701050	1444.955688	1465.435425	76.923035
206.292343	1438.129150	1583.762451	1513.221313	51.562496
206.673767	1529.150024	1547.354126	1474.537476	-300.001343
207.055115	1499.568237	1481.364014	1454.057739	249.999664
207.436462	1463.159912	1492.741699	1447.231201	-53.846344
207.817780	1442.680176	1483.639526	1472.261963	72.222305
208.199051	1474.537476	1515.496826	1563.282837	216.666916
208.580307	1529.150024	1529.150024	1479.088501	0.000000
208.961517	1540.527588	1520.047852	1451.782227	433.332550
209.342712	1499.568237	1394.894287	1488.190552	10.869644
209.723846	1520.047852	1501.843750	1526.874512	-37.500671
210.104965	1490.466064	1504.119263	1542.803101	383.331696
210.486069	1429.027100	1483.639526	1479.088501	91.666687
210.867111	1490.466064	1531.425537	1515.496826	61.111046
211.248123	1490.466064	1504.119263	1483.639526	-49.999554
211.629120	1479.088501	1542.803101	1472.261963	-10.714245
212.010071	1433.578125	1495.017212	1476.812988	70.370293
212.390991	1476.812988	1497.292725	1495.017212	88.888954
212.771881	1490.466064	1535.976563	1465.435425	-54.999706
213.152756	1535.976563	1517.772339	1495.017212	224.999161
213.533569	1438.129150	1463.159912	1422.200562	-63.636055
213.914368	1447.231201	1490.466064	1399.445313	-110.526283
214.295135	1413.098389	1483.639526	1497.292725	119.354942
214.675858	1472.261963	1535.976563	1426.751587	-71.428490
215.056549	1463.159912	1510.945801	1481.364014	38.095142
215.437225	1469.986450	1413.098389	1476.812988	-11.999949
215.817841	1492.741699	1447.231201	1433.578125	129.999832
216.198441	1438.129150	1488.190552	1467.710938	59.091007
216.579025	1397.169800	1506.394775	1463.159912	60.416687
216.959549	1490.466064	1479.088501	1488.190552	20.000000
217.340057	1476.812988	1526.874512	1479.088501	4.545433
217.720535	1472.261963	1542.803101	1440.404663	-45.161308
218.100967	1433.578125	1495.017212	1451.782227	29.629513
218.481369	1492.741699	1579.211426	1490.466064	-2.631713
218.861740	1458.608887	1492.741699	1479.088501	59.999786
219.242065	1488.190552	1492.741699	1458.608887	-649.982544
219.622391	1535.976563	1488.190552	1485.915039	104.761879
220.002670	1435.853638	1488.190552	1444.955688	17.391264
220.382919	1415.373901	1490.466064	1433.578125	24.242508
220.763123	1469.986450	1515.496826	1458.608887	-24.999933
221.143295	1397.169800	1551.905151	1449.506714	33.823502
221.523453	1481.364014	1540.527588	1422.200562	-99.999794
221.903549	1442.680176	1522.323364	1547.354126	131.428635
222.283630	1508.670288	1558.731689	1474.537476	-68.181892
222.663696	1481.364014	1472.261963	1451.782227	325.001343
223.043701	1506.394775	1488.190552	1444.955688	337.499084
223.423676	1513.221313	1545.078613	1467.710938	-142.856979
223.803635	1533.701050	1558.731689	1497.292725	-145.455032
224.183548	1508.670288	1508.670288	1506.394775	0.000000
224.563431	1540.527588	1508.670288	1465.435425	235.714142
224.943283	1547.354126	1481.364014	1504.119263	65.517181
225.323105	1497.292725	1545.078613	1472.261963	-52.381073
225.702881	1572.384888	1554.180664	1513.221313	324.999176
226.082642	1483.639526	1501.843750	1460.884399	-124.999161
226.462357	1549.629639	1549.629639	1520.047852	0.000000
226.842041	1488.190552	1592.864502	1435.853638	-49.999943
227.221695	1476.812988	1608.793213	1520.047852	32.758591
227.601318	1463.159912	1617.895264	1458.608887	-2.941167
227.980911	1499.568237	1579.211426	1438.129150	-77.142929
228.360474	1449.506714	1615.619751	1451.782227	1.369858
228.739990	1417.649414	1599.691162	1410.822876	-3.749985
229.119476	1472.261963	1563.282837	1517.772339	49.999931
229.498932	1485.915039	1595.140137	1458.608887	-24.999887
229.878372	1522.323364	1611.068726	1476.812988	-51.281979
230.257736	1492.741699	1681.609863	1424.476074	-36.144592
230.637115	1479.088501	1727.120239	1454.057739	-10.091758
231.016449	1510.945801	1749.875488	1483.639526	-11.428581
231.395737	1467.710938	1654.303589	1469.986450	1.219508
231.774994	1506.394775	1592.864502	1426.751587	-92.105286
232.154221	1463.159912	1617.895264	1513.221313	32.352917
232.533417	1554.180664	1565.558350	1469.986450	-739.994202
232.912582	1479.088501	1535.976563	1419.924927	-103.999985
233.291702	1524.598877	1622.446289	1522.323364	-2.325573
233.670792	1495.017212	1683.885376	1517.772339	12.048154
234.049866	1510.945801	1604.242188	1542.803101	34.146339
234.428894	1469.986450	1551.905151	1510.945801	50.000000
234.807892	1513.221313	1611.068726	1495.017212	-18.604582
235.186874	1431.302612	1654.303589	1485.915039	24.489771
235.565781	1469.986450	1665.681274	1572.384888	52.325573
235.944687	1408.547363	1656.579102	1465.435425	22.935799
236.323547	1438.129150	1629.272949	1508.670288	36.904747
236.702377	1403.996338	1683.885376	1583.762451	64.227638
237.081177	1495.017212	1638.375000	1529.150024	23.809528
237.459946	1433.578125	1592.864502	1526.874512	58.571480
237.838669	1469.986450	1679.334351	1526.874512	27.173935
238.217361	1501.843750	1697.538574	1451.782227	-25.581425
238.596039	1501.843750	1645.201538	1474.537476	-19.047640
238.974670	1592.864502	1638.375000	1476.812988	-254.999435
239.353271	1460.884399	1683.885376	1488.190552	12.244858
239.731842	1444.955688	1715.742676	1540.527588	35.294125
240.110367	1483.639526	1692.987427	1567.833862	40.217426
240.488876	1492.741699	1729.395752	1529.150024	15.384620
240.867340	1499.568237	1686.160889	1538.252075	20.731705
241.245789	1538.252075	1686.160889	1517.772339	-13.846190
241.624176	1495.017212	1784.008301	1483.639526	-3.937037
242.002548	1467.710938	1811.314575	1460.884399	-1.986748
242.380890	1444.955688	1856.824951	1474.537476	7.182324
242.759186	1533.701050	1872.753662	1483.639526	-14.765120
243.137451	1495.017212	1991.080688	1408.547363	-17.431206
243.515686	1433.578125	2070.723877	1492.741699	9.285721
243.893890	1492.741699	2161.744873	1506.394775	2.040809
244.272049	1465.435425	2088.927979	1472.261963	1.094887
244.650192	1513.221313	2072.999512	1565.558350	9.349603
245.028290	1454.057739	1961.498901	1472.261963	3.587455
245.406357	1533.701050	1925.090576	1540.527588	1.744180
245.784393	1526.874512	1952.396851	1472.261963	-12.834238
246.162384	1397.169800	1868.202637	1433.578125	7.729466
246.540359	1520.047852	1925.090576	1476.812988	-10.674149
246.918289	1497.292725	2075.274902	1538.252075	7.086611
247.296204	1474.537476	2189.051025	1549.629639	10.509551
247.674057	1410.822876	2323.306641	1463.159912	5.735668
248.051895	1515.496826	2521.277100	1565.558350	4.977382
248.429703	1440.404663	2544.032227	1508.670288	6.185567
248.807465	1499.568237	2628.226563	1574.660400	6.653224
249.185196	1542.803101	2507.624023	1495.017212	-4.952825
249.562897	1438.129150	2350.613037	1485.915039	5.236902
249.940567	1495.017212	2214.081787	1533.701050	5.379745
250.318192	1529.150024	2186.775391	1472.261963	-8.650527
250.695801	1433.578125	2068.448486	1426.751587	-1.075265
251.073349	1410.822876	2093.479248	1424.476074	2.000010
251.450882	1440.404663	2013.835938	1476.812988	6.349205
251.828400	1472.261963	1997.907227	1495.017212	4.329012
252.205872	1435.853638	2007.009399	1458.608887	3.984071
252.583313	1529.150024	2072.999512	1506.394775	-4.184108
252.960693	1397.169800	2100.305664	1558.731689	22.977337
253.338074	1533.701050	2202.704102	1479.088501	-8.163274
253.715408	1488.190552	2157.193604	1485.915039	-0.340135
254.092682	1479.088501	2134.438477	1488.190552	1.388884
254.469955	1526.874512	2070.723877	1513.221313	-2.510474
254.847198	1501.843750	2034.315552	1469.986450	-5.982908
255.224365	1488.190552	1986.529663	1517.772339	5.936076
255.601563	1501.843750	1970.601074	1447.231201	-11.650495
255.978683	1449.506714	2018.386963	1485.915039	6.399998
256.355743	1485.915039	1997.907227	1447.231201	-7.555552
256.732819	1508.670288	1991.080688	1467.710938	-8.490561
257.109894	1485.915039	1947.845825	1449.506714	-7.881771
257.486877	1474.537476	1922.815063	1401.720825	-16.243652
257.863831	1463.159912	2052.519775	1476.812988	2.316594
258.240753	1435.853638	2123.060791	1465.435425	4.304639
258.617645	1495.017212	2072.999512	1490.466064	-0.787420
258.994507	1492.741699	2284.622803	1531.425537	4.885056
259.371307	1495.017212	2261.867676	1435.853638	-7.715138
259.748108	1508.670288	2350.613037	1529.150024	2.432438
260.124878	1403.996338	2610.022461	1483.639526	6.603770
260.501617	1447.231201	2778.410889	1497.292725	3.760689
260.878296	1456.333252	3019.616211	1499.568237	2.765653
261.254944	1458.608887	3153.871826	1529.150024	4.161074
261.631561	1513.221313	3108.361328	1547.354126	2.139800
262.008179	1465.435425	2990.034424	1599.691162	8.805970
262.384735	1508.670288	2632.777588	1444.955688	-5.668017
262.761261	1529.150024	2464.388916	1597.415649	7.299272
263.137695	1467.710938	2368.817139	1551.905151	9.343429
263.514191	1488.190552	2332.408936	1481.364014	-0.808622
263.890594	1440.404663	2336.959961	1561.007324	13.451781
264.267029	1520.047852	2252.765625	1506.394775	-1.863347
264.643341	1538.252075	2214.081787	1497.292725	-6.060602
265.019653	1483.639526	2302.827148	1531.425537	5.833342
265.395935	1488.190552	2307.378174	1481.364014	-0.833330
265.772217	1501.843750	2264.143311	1538.252075	4.776118
266.148407	1479.088501	2300.551514	1472.261963	-0.831022
266.524597	1435.853638	2209.530762	1476.812988	5.294114
266.900726	1440.404663	2298.276123	1513.221313	8.488061
267.276855	1415.373901	2468.940186	1540.527588	11.879052
267.652924	1490.466064	2496.246338	1472.261963	-1.809948
268.028992	1520.047852	2509.899414	1547.354126	2.758623
268.404999	1510.945801	2478.042236	1565.558350	5.647063
268.781006	1538.252075	2487.144287	1495.017212	-4.556351
269.156921	1476.812988	2544.032227	1463.159912	-1.279313
269.532837	1495.017212	2425.705078	1520.047852	2.689477
269.908661	1572.384888	2532.654541	1556.456177	-1.658775
270.284546	1499.568237	2512.175049	1531.425537	3.146068
270.660339	1415.373901	2402.949951	1483.639526	6.912442
271.036133	1476.812988	2610.022461	1495.017212	1.606431
271.411835	1467.710938	2666.910400	1501.843750	2.846300
271.787537	1424.476074	2635.052979	1501.843750	6.390975
272.163239	1454.057739	2860.329590	1561.007324	7.605186
272.538849	1406.271851	3076.504150	1520.047852	6.811986
272.914459	1406.271851	3005.962891	1515.496826	6.827879
273.290070	1472.261963	2933.146240	1488.190552	1.090339
273.665588	1522.323364	2860.329590	1510.945801	-0.850337
274.041046	1481.364014	2773.859863	1547.354126	5.105634
274.416565	1419.924927	2769.308838	1504.119263	6.239465
274.791962	1474.537476	2755.655762	1529.150024	4.262881
275.167389	1497.292725	2728.349365	1513.221313	1.293896
275.542755	1451.782227	2625.950928	1576.935913	10.658918
275.918060	1495.017212	2610.022461	1524.598877	2.653052
276.293365	1483.639526	2632.777588	1501.843750	1.584163
276.668640	1440.404663	2751.104736	1454.057739	1.041663
277.043854	1499.568237	2748.829102	1558.731689	4.735877
277.419037	1490.466064	2757.931152	1497.292725	0.538607
277.794189	1479.088501	2707.869873	1540.527588	5.000001
278.169312	1449.506714	2742.002686	1547.354126	7.570423
278.544373	1513.221313	2801.166016	1533.701050	1.590110
278.919464	1526.874512	2787.512939	1488.190552	-3.068601
279.294464	1458.608887	2844.401123	1561.007324	7.389162
279.669464	1463.159912	2798.890625	1508.670288	3.407152
280.044403	1481.364014	2760.206787	1506.394775	1.957298
280.419312	1424.476074	2710.145264	1561.007324	10.619470
280.794189	1442.680176	2701.043213	1565.558350	9.764922
281.169037	1433.578125	2885.360352	1576.935913	9.874607
281.543854	1458.608887	2821.645752	1535.976563	5.676125
281.918671	1465.435425	2921.768799	1572.384888	7.343749
282.293365	1429.027100	3005.962891	1576.935913	9.379508
282.668091	1517.772339	3117.463379	1574.660400	3.556190
283.042786	1492.741699	3122.014648	1556.456177	3.910608
283.417419	1522.323364	3238.066162	1515.496826	-0.397877
283.792053	1467.710938	3224.413086	1567.833862	5.699482
284.166595	1492.741699	3078.779541	1542.803101	3.156381
284.541138	1497.292725	3085.606201	1599.691162	6.446991
284.915619	1458.608887	3060.575439	1561.007324	6.392046
285.290100	1542.803101	3044.646729	1565.558350	1.515154
285.664520	1495.017212	3217.586426	1531.425537	2.113606
286.038940	1465.435425	3238.066162	1508.670288	2.439023
286.413300	1465.435425	3351.842041	1524.598877	3.136304
286.787628	1451.782227	3411.005615	1510.945801	3.019746
287.161896	1490.466064	3524.781738	1620.170776	6.375840
287.536194	1506.394775	3374.597412	1472.261963	-1.827040
287.910400	1435.853638	3540.710449	1608.793213	8.216215
288.284607	1433.578125	3360.944336	1529.150024	4.958679
288.658752	1490.466064	3178.902588	1570.109375	4.716986
289.032867	1501.843750	3103.810303	1576.935913	4.687499
289.406921	1403.996338	3083.330566	1592.864502	11.246610
289.781006	1422.200562	3085.606201	1599.691162	10.670314
290.154999	1417.649414	3217.586426	1567.833862	8.343872
290.529022	1467.710938	3176.626953	1595.140137	7.456727
290.902954	1460.884399	3354.117676	1588.313477	6.730765
291.276825	1504.119263	3408.730225	1636.099487	6.929511
291.650757	1488.190552	3465.618164	1581.486938	4.718069
292.024597	1501.843750	3426.934326	1658.854614	8.156025
292.398407	1469.986450	3388.250488	1576.935913	5.575325
292.772156	1483.639526	3315.433838	1590.588989	5.838508
293.145905	1469.986450	3194.831299	1615.619751	8.443270
293.519592	1463.159912	3238.066162	1613.344238	8.461535
293.893280	1529.150024	3197.106689	1622.446289	5.593447
294.266907	1479.088501	3354.117676	1574.660400	5.097089
294.640533	1499.568237	3358.668701	1524.598877	1.346384
295.014069	1447.231201	3467.893799	1590.588989	7.094593
295.387604	1490.466064	3545.261475	1590.588989	4.872647
295.761078	1438.129150	3568.016602	1572.384888	6.303419
296.134552	1467.710938	3649.935303	1620.170776	6.986442
296.507996	1454.057739	3622.629150	1624.721802	7.869885
296.881378	1474.537476	3629.455566	1649.752563	8.130940
297.254730	1463.159912	3711.374512	1640.650513	7.894736
297.628021	1533.701050	4016.294189	1665.681274	5.316224
298.001282	1449.506714	4041.324951	1581.486938	5.092186
298.374573	1460.884399	4029.947266	1588.313477	4.960138
298.747803	1513.221313	4132.345703	1663.405762	5.734147
299.121002	1499.568237	3975.334961	1647.477051	5.974263
299.494141	1465.435425	3718.200928	1563.282837	4.343435
299.867188	1433.578125	3740.956299	1604.242188	7.396450
300.240265	1483.639526	3665.864014	1604.242188	5.526592
300.613312	1447.231201	3665.864014	1606.517700	7.179489
300.986328	1467.710938	3449.689453	1542.803101	3.788748
301.359314	1451.782227	3488.373291	1647.477051	9.608940
301.732239	1442.680176	3392.801514	1576.935913	6.884481
302.105103	1451.782227	3376.872803	1567.833862	6.028373
302.477997	1469.986450	3504.302002	1581.486938	5.480983
302.850830	1474.537476	3529.332764	1558.731689	4.097450
303.223602	1517.772339	3492.924316	1529.150024	0.576041
303.596375	1524.598877	3333.637939	1583.762451	3.270442
303.969116	1447.231201	3301.780762	1586.037964	7.484662
304.341766	1467.710938	3379.148438	1617.895264	7.857140
304.714478	1488.190552	3390.525879	1535.976563	2.511966
305.087067	1474.537476	3194.831299	1636.099487	9.391536
305.459656	1506.394775	3379.148438	1574.660400	3.645200
305.832214	1520.047852	3267.647949	1576.935913	3.255210
306.204681	1479.088501	3260.821289	1535.976563	3.192850
306.577148	1504.119263	3247.168213	1638.375000	7.702350
306.949646	1474.537476	3365.495361	1631.548462	8.303251
307.322021	1476.812988	3342.739990	1613.344238	7.317073
307.694397	1529.150024	3240.341553	1629.272949	5.851065
308.066742	1449.506714	3242.617188	1576.935913	7.106601
308.439026	1504.119263	3315.433838	1617.895264	6.281405
308.811279	1388.067749	3404.179199	1626.997314	11.851009
309.183502	1394.894287	3558.914551	1520.047852	5.783382
309.555695	1429.027100	3634.006836	1695.262939	12.074299
309.927887	1540.527588	3672.690674	1667.956787	5.976522
310.299988	1447.231201	3556.638916	1524.598877	3.667744
310.672058	1449.506714	3629.455566	1608.793213	7.306892
311.044128	1469.986450	3695.445801	1576.935913	4.805725
311.416168	1492.741699	3608.976074	1572.384888	3.763439
311.788147	1504.119263	3706.823486	1551.905151	2.169419
312.160065	1504.119263	3649.935303	1626.997314	5.726402
312.531982	1442.680176	3754.609375	1640.650513	8.562993
312.903870	1460.884399	3652.210938	1590.588989	5.918998
313.275696	1426.751587	3563.465576	1617.895264	8.945684
313.647491	1506.394775	3620.353516	1624.721802	5.597414
314.019318	1408.547363	3413.281250	1574.660400	8.286039
314.391022	1490.466064	3461.067139	1570.109375	4.041574
314.762726	1440.404663	3533.883789	1567.833862	6.086958
315.134369	1422.200562	3668.139648	1547.354126	5.572438
315.505981	1447.231201	3725.027588	1626.997314	7.892107
315.877594	1479.088501	3845.630127	1604.242188	5.288464
316.249146	1456.333252	3706.823486	1592.864502	6.066734
316.620636	1438.129150	3674.966064	1558.731689	5.391655
316.992157	1488.190552	3490.648926	1640.650513	7.613639
317.363586	1458.608887	3458.791504	1620.170776	8.077357
317.735016	1495.017212	3219.861816	1636.099487	8.179420
318.106354	1529.150024	3319.984863	1663.405762	7.496824
318.477722	1474.537476	3356.393066	1631.548462	8.343413
318.849060	1513.221313	3388.250488	1599.691162	4.611653
