Jaz Data File
++++++++++++++++++++++++++++++++++++
Date: Wed Sep 18 04:12:48 2024
User: jaz
Dark Spectrum Present: Yes
Reference Spectrum Present: Yes
Processed Spectrum Present: Yes
Spectrometers: JAZA3692
Integration Time (usec): 40000 (JAZA3692)
Spectra Averaged: 1 (JAZA3692)
Boxcar Smoothing: 0 (JAZA3692)
Correct for Electrical Dark: No (JAZA3692)
Strobe/Lamp Enabled: Yes (JAZA3692)
Correct for Detector Non-linearity: No (JAZA3692)
Correct for Stray Light: No (JAZA3692)
Number of Pixels in Processed Spectrum: 2048
>>>>>Begin Processed Spectral Data<<<<<
W	D	R	S	P
190.244385	0.000000	0.000000	0.000000	0.000000
190.627136	0.000000	0.000000	0.000000	0.000000
191.009842	1479.088501	1465.435425	1422.200562	416.667572
191.392532	1406.271851	1449.506714	1492.741699	200.000290
191.775177	1426.751587	1447.231201	1456.333252	144.444443
192.157791	1497.292725	1479.088501	1440.404663	312.499237
192.540390	1483.639526	1440.404663	1538.252075	-126.315994
192.922943	1472.261963	1406.271851	1515.496826	-65.517181
193.305481	1524.598877	1479.088501	1442.680176	180.000061
193.687958	1545.078613	1533.701050	1556.456177	-100.000000
194.070419	1506.394775	1488.190552	1540.527588	-187.499420
194.452866	1517.772339	1551.905151	1488.190552	-86.666718
194.835251	1490.466064	1463.159912	1510.945801	-75.000450
195.217621	1447.231201	1433.578125	1497.292725	-366.668457
195.599960	1504.119263	1488.190552	1497.292725	42.856815
195.982254	1565.558350	1554.180664	1506.394775	519.996582
196.364517	1485.915039	1570.109375	1458.608887	-32.432293
196.746750	1515.496826	1495.017212	1429.027100	422.223419
197.128952	1481.364014	1558.731689	1495.017212	17.647161
197.511139	1515.496826	1545.078613	1517.772339	7.692276
197.893280	1506.394775	1485.915039	1410.822876	466.665680
198.275391	1506.394775	1490.466064	1520.047852	-85.713631
198.657471	1451.782227	1517.772339	1508.670288	86.206947
199.039520	1472.261963	1460.884399	1469.986450	20.000000
199.421539	1426.751587	1520.047852	1535.976563	117.073257
199.803513	1524.598877	1506.394775	1510.945801	75.000000
200.185471	1510.945801	1517.772339	1481.364014	-433.335114
200.567383	1492.741699	1492.741699	1579.211426	0.000000
200.949265	1472.261963	1506.394775	1499.568237	80.000069
201.331131	1449.506714	1513.221313	1529.150024	125.000099
201.712967	1408.547363	1551.905151	1488.190552	55.555538
202.094742	1474.537476	1510.945801	1435.853638	-106.249977
202.476517	1526.874512	1460.884399	1522.323364	6.896711
202.858231	1426.751587	1504.119263	1490.466064	82.352837
203.239944	1440.404663	1458.608887	1463.159912	124.999832
203.621582	1488.190552	1529.150024	1495.017212	16.666866
204.003235	1510.945801	1495.017212	1458.608887	328.572205
204.384827	1492.741699	1542.803101	1490.466064	-4.545687
204.766388	1549.629639	1481.364014	1485.915039	93.333359
205.147934	1465.435425	1586.037964	1538.252075	60.377377
205.529449	1520.047852	1547.354126	1449.506714	-258.333069
205.910904	1533.701050	1444.955688	1510.945801	25.641058
206.292343	1438.129150	1583.762451	1488.190552	34.374969
206.673767	1529.150024	1547.354126	1458.608887	-387.501343
207.055115	1499.568237	1481.364014	1433.578125	362.498901
207.436462	1463.159912	1492.741699	1438.129150	-84.615448
207.817780	1442.680176	1483.639526	1456.333252	33.333233
208.199051	1474.537476	1515.496826	1433.578125	-100.000000
208.580307	1529.150024	1529.150024	1460.884399	0.000000
208.961517	1540.527588	1520.047852	1479.088501	299.999390
209.342712	1499.568237	1394.894287	1451.782227	45.652248
209.723846	1520.047852	1501.843750	1490.466064	162.500671
210.104965	1490.466064	1504.119263	1497.292725	50.000446
210.486069	1429.027100	1483.639526	1467.710938	70.833397
210.867111	1490.466064	1531.425537	1488.190552	-5.555522
211.248123	1490.466064	1504.119263	1469.986450	-149.998657
211.629120	1479.088501	1542.803101	1483.639526	7.142830
212.010071	1433.578125	1495.017212	1538.252075	170.370285
212.390991	1476.812988	1497.292725	1524.598877	233.332535
212.771881	1490.466064	1535.976563	1454.057739	-79.999840
213.152756	1535.976563	1517.772339	1558.731689	-124.999161
213.533569	1438.129150	1463.159912	1508.670288	281.817780
213.914368	1447.231201	1490.466064	1454.057739	15.789429
214.295135	1413.098389	1483.639526	1508.670288	135.483917
214.675858	1472.261963	1535.976563	1465.435425	-10.714245
215.056549	1463.159912	1510.945801	1504.119263	85.714325
215.437225	1469.986450	1413.098389	1419.924927	88.000053
215.817841	1492.741699	1447.231201	1472.261963	45.000027
216.198441	1438.129150	1488.190552	1472.261963	68.181892
216.579025	1397.169800	1506.394775	1454.057739	52.083271
216.959549	1490.466064	1479.088501	1433.578125	500.001068
217.340057	1476.812988	1526.874512	1492.741699	31.818270
217.720535	1472.261963	1542.803101	1476.812988	6.451591
218.100967	1433.578125	1495.017212	1476.812988	70.370293
218.481369	1492.741699	1579.211426	1426.751587	-76.315857
218.861740	1458.608887	1492.741699	1392.618774	-193.333359
219.242065	1488.190552	1492.741699	1506.394775	399.991943
219.622391	1535.976563	1488.190552	1490.466064	95.238121
220.002670	1435.853638	1488.190552	1474.537476	73.913101
220.382919	1415.373901	1490.466064	1465.435425	66.666779
220.763123	1469.986450	1515.496826	1433.578125	-80.000053
221.143295	1397.169800	1551.905151	1492.741699	61.764748
221.523453	1481.364014	1540.527588	1397.169800	-142.307510
221.903549	1442.680176	1522.323364	1481.364014	48.571434
222.283630	1508.670288	1558.731689	1529.150024	40.909233
222.663696	1481.364014	1472.261963	1479.088501	25.000000
223.043701	1506.394775	1488.190552	1501.843750	24.999832
223.423676	1513.221313	1545.078613	1476.812988	-114.285660
223.803635	1533.701050	1558.731689	1458.608887	-300.000977
224.183548	1508.670288	1508.670288	1490.466064	0.000000
224.563431	1540.527588	1508.670288	1440.404663	314.285645
224.943283	1547.354126	1481.364014	1499.568237	72.413712
225.323105	1497.292725	1545.078613	1504.119263	14.285678
225.702881	1572.384888	1554.180664	1504.119263	374.998840
226.082642	1483.639526	1501.843750	1447.231201	-199.999329
226.462357	1549.629639	1549.629639	1426.751587	0.000000
226.842041	1488.190552	1592.864502	1463.159912	-23.912960
227.221695	1476.812988	1608.793213	1419.924927	-43.103474
227.601318	1463.159912	1617.895264	1506.394775	27.941168
227.980911	1499.568237	1579.211426	1413.098389	-108.571556
228.360474	1449.506714	1615.619751	1438.129150	-6.849290
228.739990	1417.649414	1599.691162	1467.710938	27.500023
229.119476	1472.261963	1563.282837	1524.598877	57.499905
229.498932	1485.915039	1595.140137	1440.404663	-41.666592
229.878372	1522.323364	1611.068726	1501.843750	-23.076828
230.257736	1492.741699	1681.609863	1454.057739	-20.481991
230.637115	1479.088501	1727.120239	1501.843750	9.174330
231.016449	1510.945801	1749.875488	1474.537476	-15.238091
231.395737	1467.710938	1654.303589	1501.843750	18.292688
231.774994	1506.394775	1592.864502	1392.618774	-131.578995
232.154221	1463.159912	1617.895264	1424.476074	-25.000000
232.533417	1554.180664	1565.558350	1460.884399	-819.993347
232.912582	1479.088501	1535.976563	1447.231201	-55.999973
233.291702	1524.598877	1622.446289	1488.190552	-37.209290
233.670792	1495.017212	1683.885376	1440.404663	-28.915699
234.049866	1510.945801	1604.242188	1429.027100	-87.804794
234.428894	1469.986450	1551.905151	1456.333252	-16.666765
234.807892	1513.221313	1611.068726	1460.884399	-53.488297
235.186874	1431.302612	1654.303589	1469.986450	17.346937
235.565781	1469.986450	1665.681274	1483.639526	6.976718
235.944687	1408.547363	1656.579102	1460.884399	21.100943
236.323547	1438.129150	1629.272949	1435.853638	-1.190472
236.702377	1403.996338	1683.885376	1542.803101	49.593498
237.081177	1495.017212	1638.375000	1483.639526	-7.936566
237.459946	1433.578125	1592.864502	1469.986450	22.857149
237.838669	1469.986450	1679.334351	1413.098389	-27.173935
238.217361	1501.843750	1697.538574	1488.190552	-6.976780
238.596039	1501.843750	1645.201538	1533.701050	22.222231
238.974670	1592.864502	1638.375000	1465.435425	-279.999298
239.353271	1460.884399	1683.885376	1495.017212	15.306127
239.731842	1444.955688	1715.742676	1490.466064	16.806707
240.110367	1483.639526	1692.987427	1472.261963	-5.434763
240.488876	1492.741699	1729.395752	1551.905151	24.999973
240.867340	1499.568237	1686.160889	1447.231201	-28.048820
241.245789	1538.252075	1686.160889	1515.496826	-15.384647
241.624176	1495.017212	1784.008301	1524.598877	10.236186
242.002548	1467.710938	1811.314575	1476.812988	2.648997
242.380890	1444.955688	1856.824951	1499.568237	13.259681
242.759186	1533.701050	1872.753662	1513.221313	-6.040283
243.137451	1495.017212	1991.080688	1490.466064	-0.917453
243.515686	1433.578125	2070.723877	1460.884399	4.285718
243.893890	1492.741699	2161.744873	1604.242188	16.666660
244.272049	1465.435425	2088.927979	1490.466064	4.014585
244.650192	1513.221313	2072.999512	1447.231201	-11.788618
245.028290	1454.057739	1961.498901	1515.496826	12.107628
245.406357	1533.701050	1925.090576	1542.803101	2.325573
245.784393	1526.874512	1952.396851	1492.741699	-8.021392
246.162384	1397.169800	1868.202637	1451.782227	11.594187
246.540359	1520.047852	1925.090576	1526.874512	1.685417
246.918289	1497.292725	2075.274902	1403.996338	-16.141741
247.296204	1474.537476	2189.051025	1451.782227	-3.184719
247.674057	1410.822876	2323.306641	1463.159912	5.735668
248.051895	1515.496826	2521.277100	1522.323364	0.678731
248.429703	1440.404663	2544.032227	1463.159912	2.061859
248.807465	1499.568237	2628.226563	1449.506714	-4.435490
249.185196	1542.803101	2507.624023	1497.292725	-4.716977
249.562897	1438.129150	2350.613037	1522.323364	9.226926
249.940567	1495.017212	2214.081787	1485.915039	-1.265835
250.318192	1529.150024	2186.775391	1510.945801	-2.768175
250.695801	1433.578125	2068.448486	1479.088501	7.168452
251.073349	1410.822876	2093.479248	1465.435425	8.000006
251.450882	1440.404663	2013.835938	1458.608887	3.174613
251.828400	1472.261963	1997.907227	1485.915039	2.597394
252.205872	1435.853638	2007.009399	1465.435425	5.179286
252.583313	1529.150024	2072.999512	1447.231201	-15.062775
252.960693	1397.169800	2100.305664	1497.292725	14.239485
253.338074	1533.701050	2202.704102	1465.435425	-10.204082
253.715408	1488.190552	2157.193604	1460.884399	-4.081618
254.092682	1479.088501	2134.438477	1451.782227	-4.166670
254.469955	1526.874512	2070.723877	1429.027100	-17.991638
254.847198	1501.843750	2034.315552	1492.741699	-1.709396
255.224365	1488.190552	1986.529663	1454.057739	-6.849314
255.601563	1501.843750	1970.601074	1458.608887	-9.223293
255.978683	1449.506714	2018.386963	1463.159912	2.400013
256.355743	1485.915039	1997.907227	1535.976563	9.777790
256.732819	1508.670288	1991.080688	1413.098389	-19.811327
257.109894	1485.915039	1947.845825	1476.812988	-1.970436
257.486877	1474.537476	1922.815063	1504.119263	6.598989
257.863831	1463.159912	2052.519775	1426.751587	-6.177605
258.240753	1435.853638	2123.060791	1497.292725	8.940403
258.617645	1495.017212	2072.999512	1538.252075	7.480309
258.994507	1492.741699	2284.622803	1490.466064	-0.287371
259.371307	1495.017212	2261.867676	1447.231201	-6.231464
259.748108	1508.670288	2350.613037	1499.568237	-1.081077
260.124878	1403.996338	2610.022461	1515.496826	9.245279
260.501617	1447.231201	2778.410889	1463.159912	1.196586
260.878296	1456.333252	3019.616211	1524.598877	4.366812
261.254944	1458.608887	3153.871826	1520.047852	3.624156
261.631561	1513.221313	3108.361328	1463.159912	-3.138370
262.008179	1465.435425	2990.034424	1601.966675	8.955224
262.384735	1508.670288	2632.777588	1476.812988	-2.834009
262.761261	1529.150024	2464.388916	1501.843750	-2.919711
263.137695	1467.710938	2368.817139	1472.261963	0.505049
263.514191	1488.190552	2332.408936	1449.506714	-4.582208
263.890594	1440.404663	2336.959961	1520.047852	8.883244
264.267029	1520.047852	2252.765625	1556.456177	4.968943
264.643341	1538.252075	2214.081787	1492.741699	-6.734001
265.019653	1483.639526	2302.827148	1431.302612	-6.388880
265.395935	1488.190552	2307.378174	1545.078613	6.944448
265.772217	1501.843750	2264.143311	1535.976563	4.477612
266.148407	1479.088501	2300.551514	1542.803101	7.756235
266.524597	1435.853638	2209.530762	1463.159912	3.529415
266.900726	1440.404663	2298.276123	1520.047852	9.283813
267.276855	1415.373901	2468.940186	1456.333252	3.887686
267.652924	1490.466064	2496.246338	1463.159912	-2.714922
268.028992	1520.047852	2509.899414	1531.425537	1.149433
268.404999	1510.945801	2478.042236	1467.710938	-4.470584
268.781006	1538.252075	2487.144287	1488.190552	-5.275786
269.156921	1476.812988	2544.032227	1492.741699	1.492543
269.532837	1495.017212	2425.705078	1542.803101	5.134470
269.908661	1572.384888	2532.654541	1424.476074	-15.402842
270.284546	1499.568237	2512.175049	1424.476074	-7.415728
270.660339	1415.373901	2402.949951	1401.720825	-1.382483
271.036133	1476.812988	2610.022461	1517.772339	3.614455
271.411835	1467.710938	2666.910400	1474.537476	0.569258
271.787537	1424.476074	2635.052979	1531.425537	8.834586
272.163239	1454.057739	2860.329590	1556.456177	7.281554
272.538849	1406.271851	3076.504150	1506.394775	5.994551
272.914459	1406.271851	3005.962891	1499.568237	5.832150
273.290070	1472.261963	2933.146240	1524.598877	3.582550
273.665588	1522.323364	2860.329590	1535.976563	1.020414
274.041046	1481.364014	2773.859863	1495.017212	1.056344
274.416565	1419.924927	2769.308838	1501.843750	6.070831
274.791962	1474.537476	2755.655762	1531.425537	4.440500
275.167389	1497.292725	2728.349365	1547.354126	4.066539
275.542755	1451.782227	2625.950928	1513.221313	5.232561
275.918060	1495.017212	2610.022461	1481.364014	-1.224496
276.293365	1483.639526	2632.777588	1506.394775	1.980201
276.668640	1440.404663	2751.104736	1476.812988	2.777777
277.043854	1499.568237	2748.829102	1510.945801	0.910744
277.419037	1490.466064	2757.931152	1458.608887	-2.513456
277.794189	1479.088501	2707.869873	1417.649414	-5.000001
278.169312	1449.506714	2742.002686	1565.558350	8.978878
278.544373	1513.221313	2801.166016	1492.741699	-1.590100
278.919464	1526.874512	2787.512939	1501.843750	-1.985562
279.294464	1458.608887	2844.401123	1535.976563	5.582920
279.669464	1463.159912	2798.890625	1454.057739	-0.681438
280.044403	1481.364014	2760.206787	1517.772339	2.846974
280.419312	1424.476074	2710.145264	1524.598877	7.787602
280.794189	1442.680176	2701.043213	1517.772339	5.967448
281.169037	1433.578125	2885.360352	1538.252075	7.210031
281.543854	1458.608887	2821.645752	1522.323364	4.674450
281.918671	1465.435425	2921.768799	1488.190552	1.562494
282.293365	1429.027100	3005.962891	1540.527588	7.070706
282.668091	1517.772339	3117.463379	1558.731689	2.560454
283.042786	1492.741699	3122.014648	1492.741699	0.000000
283.417419	1522.323364	3238.066162	1490.466064	-1.856764
283.792053	1467.710938	3224.413086	1522.323364	3.108804
284.166595	1492.741699	3078.779541	1570.109375	4.878047
284.541138	1497.292725	3085.606201	1472.261963	-1.575933
284.915619	1458.608887	3060.575439	1520.047852	3.835222
285.290100	1542.803101	3044.646729	1574.660400	2.121213
285.664520	1495.017212	3217.586426	1524.598877	1.717299
286.038940	1465.435425	3238.066162	1533.701050	3.851091
286.413300	1465.435425	3351.842041	1465.435425	0.000000
286.787628	1451.782227	3411.005615	1567.833862	5.923349
287.161896	1490.466064	3524.781738	1508.670288	0.894857
287.536194	1506.394775	3374.597412	1510.945801	0.243604
287.910400	1435.853638	3540.710449	1572.384888	6.486486
288.284607	1433.578125	3360.944336	1476.812988	2.243210
288.658752	1490.466064	3178.902588	1495.017212	0.269548
289.032867	1501.843750	3103.810303	1529.150024	1.704547
289.406921	1403.996338	3083.330566	1570.109375	9.891601
289.781006	1422.200562	3085.606201	1458.608887	2.188782
290.154999	1417.649414	3217.586426	1488.190552	3.919089
290.529022	1467.710938	3176.626953	1495.017212	1.597871
290.902954	1460.884399	3354.117676	1542.803101	4.326921
291.276825	1504.119263	3408.730225	1472.261963	-1.672641
291.650757	1488.190552	3465.618164	1565.558350	3.912548
292.024597	1501.843750	3426.934326	1490.466064	-0.591021
292.398407	1469.986450	3388.250488	1479.088501	0.474494
292.772156	1483.639526	3315.433838	1490.466064	0.372669
293.145905	1469.986450	3194.831299	1476.812988	0.395777
293.519592	1463.159912	3238.066162	1529.150024	3.717949
293.893280	1529.150024	3197.106689	1556.456177	1.637102
294.266907	1479.088501	3354.117676	1520.047852	2.184465
294.640533	1499.568237	3358.668701	1567.833862	3.671971
295.014069	1447.231201	3467.893799	1499.568237	2.590093
295.387604	1490.466064	3545.261475	1524.598877	1.661129
295.761078	1438.129150	3568.016602	1517.772339	3.739314
296.134552	1467.710938	3649.935303	1495.017212	1.251305
296.507996	1454.057739	3622.629150	1508.670288	2.518365
296.881378	1474.537476	3629.455566	1576.935913	4.751849
297.254730	1463.159912	3711.374512	1535.976563	3.238866
297.628021	1533.701050	4016.294189	1579.211426	1.833179
298.001282	1449.506714	4041.324951	1513.221313	2.458297
298.374573	1460.884399	4029.947266	1524.598877	2.480067
298.747803	1513.221313	4132.345703	1524.598877	0.434403
299.121002	1499.568237	3975.334961	1586.037964	3.492645
299.494141	1465.435425	3718.200928	1501.843750	1.616161
299.867188	1433.578125	3740.956299	1474.537476	1.775147
300.240265	1483.639526	3665.864014	1520.047852	1.668404
300.613312	1447.231201	3665.864014	1522.323364	3.384614
300.986328	1467.710938	3449.689453	1570.109375	5.166476
301.359314	1451.782227	3488.373291	1622.446289	8.379889
301.732239	1442.680176	3392.801514	1538.252075	4.900818
302.105103	1451.782227	3376.872803	1586.037964	6.973996
302.477997	1469.986450	3504.302002	1640.650513	8.389262
302.850830	1474.537476	3529.332764	1604.242188	6.312293
303.223602	1517.772339	3492.924316	1595.140137	3.917055
303.596375	1524.598877	3333.637939	1538.252075	0.754721
303.969116	1447.231201	3301.780762	1572.384888	6.748468
304.341766	1467.710938	3379.148438	1524.598877	2.976186
304.714478	1488.190552	3390.525879	1531.425537	2.272732
305.087067	1474.537476	3194.831299	1588.313477	6.613754
305.459656	1506.394775	3379.148438	1549.629639	2.308625
305.832214	1520.047852	3267.647949	1576.935913	3.255210
306.204681	1479.088501	3260.821289	1535.976563	3.192850
306.577148	1504.119263	3247.168213	1551.905151	2.741512
306.949646	1474.537476	3365.495361	1490.466064	0.842356
307.322021	1476.812988	3342.739990	1540.527588	3.414635
307.694397	1529.150024	3240.341553	1554.180664	1.462761
308.066742	1449.506714	3242.617188	1531.425537	4.568532
308.439026	1504.119263	3315.433838	1601.966675	5.402011
308.811279	1388.067749	3404.179199	1531.425537	7.110608
309.183502	1394.894287	3558.914551	1547.354126	7.045213
309.555695	1429.027100	3634.006836	1513.221313	3.818367
309.927887	1540.527588	3672.690674	1504.119263	-1.707577
310.299988	1447.231201	3556.638916	1499.568237	2.481125
310.672058	1449.506714	3629.455566	1492.741699	1.983303
311.044128	1469.986450	3695.445801	1485.915039	0.715744
311.416168	1492.741699	3608.976074	1597.415649	4.946236
311.788147	1504.119263	3706.823486	1581.486938	3.512395
312.160065	1504.119263	3649.935303	1481.364014	-1.060447
312.531982	1442.680176	3754.609375	1572.384888	5.610237
312.903870	1460.884399	3652.210938	1504.119263	1.972999
313.275696	1426.751587	3563.465576	1588.313477	7.561232
313.647491	1506.394775	3620.353516	1572.384888	3.121637
314.019318	1408.547363	3413.281250	1481.364014	3.632235
314.391022	1490.466064	3461.067139	1504.119263	0.692844
314.762726	1440.404663	3533.883789	1501.843750	2.934784
315.134369	1422.200562	3668.139648	1501.843750	3.546098
315.505981	1447.231201	3725.027588	1520.047852	3.196802
315.877594	1479.088501	3845.630127	1545.078613	2.788462
316.249146	1456.333252	3706.823486	1492.741699	1.617801
316.620636	1438.129150	3674.966064	1517.772339	3.560527
316.992157	1488.190552	3490.648926	1611.068726	6.136366
317.363586	1458.608887	3458.791504	1549.629639	4.550622
317.735016	1495.017212	3219.861816	1535.976563	2.374669
318.106354	1529.150024	3319.984863	1515.496826	-0.762393
318.477722	1474.537476	3356.393066	1551.905151	4.111244
318.849060	1513.221313	3388.250488	1549.629639	1.941747
